Wed Jun 09 19:48:37 2021

21.06.02-03_009.top image. S01

Comment: Graphite ni

Us modulation: OFF; Frq(Hz): 1333; Amp(mV): 2.00;
Us base(mV): -50; It setpoint(nA): 0.5;
Us Start(mV): -500; End(mV): 498; Step(mV): 5.98;
Us sweep rate(mV/s): 30.0; sweep delay(ms): 10;
Ccomp modulation: OFF; Amp(mV): 0.0; Phase(deg): 0.0
Lock-in input params
      Sensitivity(mV): ; Phase(deg): ;
      LPF - freq(Hz):      0; slope(dB/oct): 0;
      HPF - freq(Hz):      0; slope(dB/oct): 0;
Lock-in output params
      Time constant(ms): 0; Gain: ;
      LPF - freq(Hz):      0; slope(dB/oct): 0;
dIt scale coeff(nA/V): 

Number of STS scans: 5
Position(A) relatively to left-bottom corner: (11.6,10.8)

   Usamp    It01F    It02F    It03F    It04F    It05F    It01B    It02B    It03B    It04B    It05B    dI01F    dI02F    dI03F    dI04F    dI05F    dI01B    dI02B    dI03B    dI04B    dI05B   

  -500.0    -8.094  -10.647  -10.699  -10.699  -10.699   -0.059   -0.349   -1.758   -0.356   -0.923   45.727   45.728   45.726   45.724   45.724   45.737   45.735   45.728   45.734   45.728  
  -494.0    -8.314  -10.150  -10.700  -10.700  -10.700   -0.054   -0.379   -1.732   -0.347   -0.922   45.732   45.731   45.727   45.724   45.724   45.739   45.735   45.728   45.734   45.729  
  -488.0    -8.364   -9.871  -10.700  -10.700  -10.700   -0.060   -0.371   -1.729   -0.344   -0.891   45.729   45.726   45.725   45.724   45.721   45.735   45.735   45.728   45.735   45.730  
  -482.1    -8.837  -10.548  -10.700  -10.700  -10.700   -0.083   -0.340   -1.878   -0.346   -0.919   45.730   45.731   45.728   45.727   45.724   45.734   45.736   45.728   45.735   45.729  
  -476.1    -7.936  -10.363  -10.700  -10.700  -10.700   -0.093   -0.335   -1.773   -0.336   -0.946   45.731   45.730   45.729   45.728   45.727   45.736   45.734   45.730   45.733   45.729  
  -470.1    -8.086  -10.262  -10.700  -10.700  -10.700   -0.130   -0.349   -1.759   -0.352   -0.969   45.730   45.729   45.727   45.724   45.726   45.734   45.733   45.730   45.734   45.728  
  -464.1    -7.548   -9.893  -10.700  -10.700  -10.700   -0.138   -0.285   -1.833   -0.375   -0.939   45.732   45.730   45.728   45.725   45.728   45.735   45.732   45.728   45.736   45.728  
  -458.1    -7.065  -10.674  -10.700  -10.697  -10.700   -0.130   -0.288   -1.864   -0.374   -0.847   45.732   45.730   45.728   45.725   45.730   45.736   45.734   45.731   45.736   45.729  
  -452.2    -6.733   -9.577  -10.700  -10.650  -10.699   -0.130   -0.362   -1.717   -0.416   -0.801   45.734   45.733   45.727   45.725   45.729   45.735   45.734   45.735   45.736   45.727  
  -446.2    -6.537   -9.362  -10.700  -10.654  -10.693   -0.111   -0.420   -1.614   -0.405   -0.786   45.733   45.732   45.726   45.728   45.726   45.734   45.732   45.731   45.733   45.726  
  -440.2    -6.259   -9.396  -10.700  -10.513  -10.667   -0.111   -0.313   -1.779   -0.383   -0.768   45.731   45.736   45.727   45.730   45.731   45.736   45.733   45.733   45.736   45.730  
  -434.2    -5.975   -8.662  -10.700  -10.368  -10.628   -0.104   -0.385   -1.699   -0.359   -0.770   45.731   45.736   45.729   45.731   45.732   45.736   45.733   45.735   45.738   45.730  
  -428.2    -5.786   -8.770  -10.700  -10.231  -10.569   -0.101   -0.371   -1.644   -0.353   -0.763   45.734   45.735   45.728   45.728   45.727   45.732   45.732   45.730   45.734   45.729  
  -422.3    -5.445   -7.790  -10.700   -9.835   -9.892   -0.099   -0.384   -1.835   -0.351   -0.784   45.728   45.731   45.725   45.729   45.728   45.729   45.732   45.727   45.730   45.727  
  -416.3    -5.269   -7.272  -10.700   -9.184   -9.557   -0.097   -0.289   -1.929   -0.332   -0.765   45.729   45.731   45.725   45.728   45.729   45.733   45.734   45.727   45.730   45.728  
  -410.3    -4.907   -6.819  -10.700   -9.317   -8.357   -0.099   -0.292   -1.596   -0.345   -0.695   45.731   45.734   45.726   45.731   45.731   45.737   45.735   45.730   45.734   45.731  
  -404.3    -4.658   -6.533  -10.700   -8.653   -8.226   -0.094   -0.286   -1.645   -0.325   -0.723   45.730   45.733   45.726   45.726   45.729   45.733   45.733   45.731   45.730   45.729  
  -398.3    -4.570   -5.362  -10.700   -8.629   -8.098   -0.092   -0.259   -1.606   -0.311   -0.700   45.731   45.734   45.727   45.728   45.729   45.733   45.733   45.731   45.730   45.729  
  -392.4    -4.401   -5.161  -10.700   -7.179   -7.898   -0.091   -0.285   -1.469   -0.315   -0.688   45.730   45.736   45.730   45.729   45.732   45.735   45.733   45.733   45.731   45.730  
  -386.4    -4.373   -4.649  -10.700   -6.815   -7.566   -0.086   -0.284   -1.354   -0.291   -0.639   45.731   45.734   45.728   45.728   45.733   45.734   45.732   45.730   45.731   45.727  
  -380.4    -3.959   -4.383  -10.700   -6.226   -7.176   -0.087   -0.241   -1.503   -0.265   -0.647   45.730   45.731   45.726   45.729   45.732   45.734   45.734   45.730   45.732   45.728  
  -374.4    -3.993   -4.358  -10.700   -6.907   -6.867   -0.085   -0.202   -1.453   -0.303   -0.590   45.731   45.732   45.729   45.730   45.731   45.734   45.736   45.733   45.731   45.730  
  -368.4    -3.751   -3.942  -10.700   -6.781   -7.122   -0.094   -0.227   -1.374   -0.307   -0.599   45.731   45.732   45.729   45.729   45.732   45.735   45.735   45.732   45.734   45.731  
  -362.5    -3.271   -3.956  -10.700   -6.463   -6.680   -0.095   -0.198   -1.379   -0.283   -0.583   45.729   45.730   45.728   45.728   45.732   45.737   45.734   45.733   45.734   45.728  
  -356.5    -3.228   -3.804  -10.700   -6.074   -6.726   -0.090   -0.171   -1.312   -0.286   -0.562   45.729   45.731   45.728   45.733   45.734   45.735   45.735   45.734   45.734   45.731  
  -350.5    -2.833   -3.460  -10.700   -5.922   -6.787   -0.093   -0.195   -1.308   -0.241   -0.562   45.731   45.734   45.730   45.730   45.732   45.734   45.736   45.733   45.736   45.733  
  -344.5    -2.650   -3.625  -10.700   -5.702   -6.617   -0.097   -0.187   -1.249   -0.272   -0.569   45.731   45.736   45.726   45.730   45.730   45.731   45.736   45.727   45.732   45.728  
  -338.5    -2.770   -3.470  -10.700   -5.051   -5.862   -0.084   -0.195   -1.241   -0.255   -0.529   45.729   45.732   45.724   45.723   45.726   45.729   45.729   45.726   45.730   45.725  
  -332.6    -2.748   -3.261  -10.700   -4.802   -5.852   -0.079   -0.188   -1.157   -0.241   -0.519   45.729   45.732   45.726   45.724   45.726   45.732   45.728   45.728   45.734   45.729  
  -326.6    -2.457   -3.299  -10.697   -4.505   -5.356   -0.077   -0.170   -1.073   -0.253   -0.518   45.729   45.734   45.730   45.724   45.727   45.733   45.729   45.731   45.733   45.732  
  -320.6    -2.246   -3.096  -10.695   -4.461   -4.999   -0.074   -0.166   -1.043   -0.235   -0.488   45.727   45.733   45.729   45.723   45.724   45.734   45.730   45.731   45.734   45.729  
  -314.6    -2.259   -2.991  -10.664   -4.057   -4.755   -0.069   -0.167   -0.928   -0.212   -0.478   45.729   45.735   45.733   45.724   45.726   45.734   45.732   45.733   45.734   45.729  
  -308.6    -2.088   -2.669  -10.444   -4.473   -4.567   -0.067   -0.150   -0.889   -0.219   -0.468   45.731   45.733   45.731   45.725   45.728   45.735   45.733   45.734   45.734   45.728  
  -302.7    -1.936   -2.710   -9.867   -3.977   -4.831   -0.060   -0.158   -0.836   -0.219   -0.454   45.731   45.733   45.734   45.724   45.726   45.734   45.731   45.732   45.736   45.729  
  -296.7    -1.921   -2.529   -9.636   -3.717   -4.711   -0.062   -0.158   -0.884   -0.204   -0.442   45.728   45.730   45.731   45.722   45.725   45.732   45.728   45.732   45.734   45.729  
  -290.7    -1.720   -2.398   -9.059   -3.548   -4.658   -0.063   -0.157   -0.840   -0.174   -0.398   45.732   45.733   45.733   45.726   45.727   45.734   45.729   45.734   45.736   45.731  
  -284.7    -1.608   -2.175   -8.123   -3.289   -4.163   -0.065   -0.161   -0.823   -0.178   -0.412   45.732   45.735   45.733   45.729   45.727   45.738   45.729   45.733   45.738   45.731  
  -278.7    -1.761   -2.177   -7.848   -3.003   -3.806   -0.055   -0.166   -0.796   -0.174   -0.431   45.730   45.735   45.731   45.731   45.726   45.743   45.732   45.735   45.738   45.730  
  -272.8    -1.604   -1.989   -7.725   -2.693   -3.485   -0.055   -0.185   -0.785   -0.164   -0.369   45.734   45.734   45.731   45.728   45.726   45.744   45.733   45.736   45.735   45.732  
  -266.8    -1.493   -1.840   -7.471   -2.534   -3.497   -0.055   -0.180   -0.711   -0.184   -0.361   45.732   45.733   45.734   45.728   45.728   45.740   45.737   45.736   45.737   45.735  
  -260.8    -1.488   -1.844   -7.320   -2.402   -3.322   -0.053   -0.153   -0.672   -0.175   -0.344   45.733   45.733   45.736   45.726   45.728   45.740   45.735   45.736   45.738   45.733  
  -254.8    -1.433   -1.630   -7.150   -2.456   -3.122   -0.050   -0.143   -0.644   -0.173   -0.324   45.728   45.730   45.728   45.721   45.725   45.738   45.729   45.730   45.733   45.726  
  -248.8    -1.363   -1.586   -5.961   -2.094   -2.971   -0.047   -0.141   -0.635   -0.167   -0.349   45.728   45.732   45.732   45.722   45.727   45.741   45.733   45.731   45.735   45.731  
  -242.9    -1.299   -1.409   -5.517   -1.853   -3.028   -0.046   -0.146   -0.643   -0.166   -0.322   45.728   45.735   45.735   45.723   45.727   45.739   45.732   45.730   45.735   45.733  
  -236.9    -1.113   -1.343   -5.840   -1.805   -2.869   -0.051   -0.129   -0.634   -0.155   -0.290   45.729   45.733   45.735   45.724   45.729   45.739   45.733   45.730   45.733   45.732  
  -230.9    -1.068   -1.279   -5.317   -1.622   -2.536   -0.050   -0.132   -0.595   -0.141   -0.295   45.729   45.731   45.738   45.727   45.726   45.740   45.734   45.730   45.735   45.730  
  -224.9    -1.018   -1.244   -4.817   -1.499   -2.778   -0.045   -0.146   -0.590   -0.096   -0.317   45.732   45.729   45.734   45.729   45.728   45.742   45.732   45.731   45.736   45.732  
  -218.9    -0.906   -1.159   -4.598   -1.679   -2.412   -0.044   -0.181   -0.644   -0.110   -0.315   45.735   45.728   45.733   45.727   45.728   45.743   45.737   45.732   45.738   45.734  
  -213.0    -0.825   -1.140   -3.880   -1.415   -2.153   -0.049   -0.169   -0.560   -0.103   -0.303   45.733   45.728   45.731   45.726   45.727   45.738   45.732   45.730   45.734   45.730  
  -207.0    -0.779   -1.105   -3.710   -1.399   -2.088   -0.053   -0.166   -0.507   -0.096   -0.307   45.733   45.730   45.729   45.728   45.728   45.740   45.733   45.735   45.736   45.733  
  -201.0    -0.743   -1.030   -3.494   -1.350   -2.122   -0.048   -0.174   -0.496   -0.107   -0.290   45.734   45.730   45.731   45.727   45.730   45.739   45.736   45.734   45.737   45.735  
  -195.0    -0.781   -0.952   -3.338   -1.288   -2.038   -0.043   -0.153   -0.500   -0.095   -0.265   45.734   45.731   45.732   45.726   45.729   45.737   45.732   45.735   45.737   45.733  
  -189.0    -0.742   -0.949   -3.355   -1.143   -1.808   -0.036   -0.154   -0.432   -0.081   -0.266   45.734   45.730   45.732   45.726   45.730   45.738   45.733   45.734   45.738   45.734  
  -183.1    -0.711   -0.890   -3.278   -1.154   -1.785   -0.036   -0.145   -0.427   -0.094   -0.234   45.737   45.733   45.733   45.728   45.731   45.741   45.732   45.736   45.737   45.734  
  -177.1    -0.664   -0.818   -3.097   -1.072   -1.919   -0.035   -0.139   -0.420   -0.069   -0.242   45.733   45.732   45.735   45.731   45.732   45.742   45.734   45.735   45.743   45.733  
  -171.1    -0.651   -0.742   -2.898   -0.977   -1.366   -0.035   -0.129   -0.465   -0.067   -0.214   45.726   45.730   45.730   45.729   45.727   45.737   45.730   45.727   45.739   45.731  
  -165.1    -0.564   -0.764   -2.342   -0.922   -1.447   -0.040   -0.127   -0.432   -0.068   -0.212   45.727   45.728   45.729   45.729   45.728   45.739   45.731   45.730   45.737   45.732  
  -159.1    -0.525   -0.701   -2.362   -0.871   -1.500   -0.055   -0.119   -0.412   -0.077   -0.203   45.727   45.729   45.728   45.727   45.728   45.740   45.730   45.731   45.737   45.731  
  -153.2    -0.480   -0.608   -2.204   -0.799   -1.629   -0.049   -0.127   -0.372   -0.064   -0.188   45.731   45.731   45.730   45.729   45.729   45.740   45.733   45.732   45.738   45.733  
  -147.2    -0.442   -0.569   -2.067   -0.830   -1.229   -0.048   -0.113   -0.368   -0.057   -0.187   45.732   45.728   45.733   45.727   45.726   45.738   45.730   45.734   45.739   45.732  
  -141.2    -0.395   -0.561   -2.041   -0.752   -1.137   -0.051   -0.104   -0.388   -0.054   -0.197   45.733   45.730   45.734   45.731   45.727   45.742   45.733   45.733   45.738   45.733  
  -135.2    -0.371   -0.513   -2.213   -0.657   -0.928   -0.050   -0.093   -0.311   -0.068   -0.188   45.734   45.732   45.732   45.732   45.728   45.741   45.736   45.733   45.740   45.733  
  -129.2    -0.353   -0.466   -2.061   -0.604   -0.801   -0.048   -0.088   -0.299   -0.069   -0.189   45.733   45.729   45.731   45.729   45.728   45.742   45.733   45.731   45.739   45.732  
  -123.3    -0.322   -0.415   -1.953   -0.535   -0.782   -0.047   -0.085   -0.291   -0.060   -0.185   45.733   45.733   45.733   45.731   45.730   45.743   45.738   45.734   45.739   45.732  
  -117.3    -0.321   -0.375   -1.821   -0.520   -0.668   -0.042   -0.072   -0.264   -0.052   -0.166   45.732   45.737   45.733   45.731   45.728   45.742   45.739   45.736   45.739   45.732  
  -111.3    -0.283   -0.362   -1.552   -0.450   -0.606   -0.039   -0.068   -0.254   -0.057   -0.151   45.734   45.735   45.734   45.735   45.730   45.745   45.740   45.735   45.739   45.732  
  -105.3    -0.253   -0.344   -1.520   -0.412   -0.567   -0.034   -0.062   -0.236   -0.062   -0.138   45.734   45.736   45.734   45.733   45.728   45.740   45.737   45.738   45.741   45.731  
   -99.3    -0.222   -0.307   -1.355   -0.360   -0.506   -0.036   -0.049   -0.223   -0.056   -0.130   45.735   45.733   45.733   45.734   45.730   45.746   45.738   45.740   45.744   45.731  
   -93.4    -0.224   -0.308   -1.267   -0.343   -0.472   -0.040   -0.049   -0.211   -0.066   -0.130   45.735   45.733   45.732   45.736   45.731   45.744   45.741   45.740   45.743   45.732  
   -87.4    -0.223   -0.290   -1.148   -0.320   -0.402   -0.040   -0.045   -0.194   -0.062   -0.117   45.731   45.733   45.729   45.731   45.728   45.740   45.735   45.736   45.736   45.731  
   -81.4    -0.182   -0.241   -1.116   -0.299   -0.367   -0.038   -0.043   -0.148   -0.060   -0.118   45.733   45.732   45.730   45.728   45.729   45.740   45.736   45.736   45.739   45.730  
   -75.4    -0.168   -0.211   -1.025   -0.269   -0.347   -0.033   -0.042   -0.156   -0.057   -0.110   45.732   45.731   45.730   45.730   45.730   45.742   45.734   45.736   45.741   45.729  
   -69.4    -0.138   -0.192   -0.896   -0.249   -0.348   -0.032   -0.040   -0.145   -0.073   -0.094   45.735   45.736   45.731   45.732   45.734   45.744   45.735   45.738   45.739   45.732  
   -63.5    -0.139   -0.173   -0.817   -0.230   -0.331   -0.030   -0.040   -0.118   -0.058   -0.082   45.732   45.733   45.729   45.731   45.730   45.741   45.737   45.736   45.740   45.732  
   -57.5    -0.129   -0.161   -0.731   -0.199   -0.260   -0.028   -0.035   -0.104   -0.036   -0.075   45.736   45.734   45.733   45.733   45.730   45.743   45.739   45.740   45.741   45.733  
   -51.5    -0.099   -0.152   -0.638   -0.178   -0.216   -0.028   -0.032   -0.092   -0.030   -0.074   45.739   45.738   45.734   45.736   45.731   45.745   45.740   45.743   45.740   45.734  
   -45.5    -0.093   -0.123   -0.592   -0.157   -0.193   -0.025   -0.029   -0.093   -0.029   -0.067   45.738   45.736   45.731   45.734   45.732   45.745   45.738   45.737   45.740   45.733  
   -39.5    -0.075   -0.105   -0.484   -0.136   -0.171   -0.023   -0.026   -0.085   -0.027   -0.054   45.738   45.736   45.735   45.733   45.731   45.743   45.740   45.737   45.740   45.734  
   -33.6    -0.065   -0.087   -0.378   -0.110   -0.144   -0.021   -0.025   -0.070   -0.028   -0.052   45.735   45.737   45.738   45.736   45.730   45.745   45.740   45.740   45.740   45.736  
   -27.6    -0.053   -0.078   -0.302   -0.086   -0.119   -0.019   -0.024   -0.059   -0.026   -0.041   45.737   45.737   45.735   45.738   45.733   45.748   45.739   45.742   45.739   45.739  
   -21.6    -0.038   -0.057   -0.223   -0.065   -0.086   -0.018   -0.020   -0.043   -0.023   -0.034   45.738   45.735   45.737   45.738   45.733   45.744   45.740   45.741   45.739   45.738  
   -15.6    -0.030   -0.044   -0.150   -0.045   -0.053   -0.016   -0.018   -0.032   -0.019   -0.026   45.739   45.735   45.738   45.739   45.735   45.748   45.742   45.743   45.741   45.742  
    -9.6    -0.023   -0.026   -0.078   -0.025   -0.024   -0.014   -0.015   -0.019   -0.015   -0.018   45.736   45.741   45.740   45.741   45.737   45.749   45.744   45.741   45.742   45.743  
    -3.7    -0.014   -0.012   -0.008   -0.006    0.006   -0.012   -0.013   -0.008   -0.013   -0.011   45.733   45.741   45.733   45.734   45.722   45.744   45.735   45.734   45.736   45.739  
     2.3    -0.006    0.001    0.066    0.013    0.040   -0.011   -0.010    0.003   -0.011   -0.004   45.724   45.719   45.716   45.714   45.709   45.737   45.728   45.722   45.729   45.727  
     8.3     0.003    0.011    0.139    0.035    0.074   -0.009   -0.007    0.016   -0.007    0.005   45.720   45.714   45.719   45.714   45.713   45.736   45.726   45.720   45.730   45.720  
    14.3     0.012    0.021    0.212    0.054    0.112   -0.008   -0.003    0.028   -0.002    0.013   45.716   45.715   45.719   45.714   45.715   45.732   45.726   45.720   45.726   45.716  
    20.3     0.020    0.034    0.281    0.074    0.138   -0.007    0.001    0.040    0.000    0.022   45.713   45.715   45.721   45.712   45.714   45.729   45.723   45.718   45.722   45.713  
    26.2     0.032    0.049    0.347    0.101    0.156   -0.005    0.005    0.052    0.006    0.029   45.713   45.718   45.723   45.715   45.713   45.733   45.718   45.721   45.719   45.715  
    32.2     0.038    0.053    0.448    0.136    0.177   -0.003    0.010    0.064    0.013    0.034   45.714   45.716   45.723   45.716   45.714   45.731   45.716   45.722   45.719   45.716  
    38.2     0.042    0.065    0.529    0.138    0.229   -0.001    0.013    0.080    0.017    0.041   45.716   45.714   45.719   45.716   45.716   45.727   45.716   45.722   45.718   45.715  
    44.2     0.053    0.080    0.622    0.159    0.250    0.001    0.018    0.092    0.022    0.045   45.714   45.714   45.720   45.716   45.713   45.726   45.713   45.720   45.714   45.716  
    50.2     0.060    0.089    0.697    0.206    0.291    0.006    0.023    0.111    0.023    0.051   45.715   45.715   45.722   45.715   45.715   45.723   45.715   45.721   45.718   45.714  
    56.1     0.070    0.117    0.748    0.202    0.317    0.004    0.029    0.123    0.030    0.063   45.716   45.718   45.724   45.715   45.717   45.726   45.715   45.721   45.719   45.716  
    62.1     0.086    0.114    0.936    0.221    0.359    0.008    0.030    0.149    0.036    0.077   45.717   45.717   45.724   45.715   45.717   45.721   45.716   45.721   45.718   45.714  
    68.1     0.104    0.139    1.064    0.266    0.378    0.009    0.031    0.170    0.046    0.083   45.719   45.717   45.723   45.715   45.714   45.721   45.717   45.721   45.719   45.714  
    74.1     0.103    0.153    1.146    0.293    0.369    0.013    0.038    0.186    0.054    0.086   45.719   45.718   45.724   45.716   45.715   45.721   45.717   45.721   45.718   45.714  
    80.1     0.108    0.162    1.243    0.307    0.436    0.019    0.049    0.188    0.062    0.104   45.718   45.717   45.723   45.716   45.715   45.720   45.715   45.719   45.720   45.714  
    86.0     0.099    0.164    1.430    0.305    0.435    0.022    0.054    0.211    0.068    0.116   45.714   45.714   45.718   45.712   45.713   45.719   45.715   45.717   45.717   45.714  
    92.0     0.094    0.170    1.409    0.327    0.427    0.024    0.060    0.256    0.085    0.133   45.716   45.714   45.720   45.715   45.715   45.720   45.717   45.721   45.718   45.714  
    98.0     0.110    0.211    1.419    0.379    0.493    0.030    0.069    0.303    0.092    0.139   45.717   45.715   45.722   45.714   45.716   45.718   45.719   45.722   45.717   45.717  
   104.0     0.128    0.231    1.467    0.390    0.547    0.031    0.077    0.308    0.093    0.149   45.720   45.716   45.725   45.714   45.717   45.717   45.720   45.722   45.718   45.716  
   110.0     0.176    0.232    1.573    0.412    0.578    0.030    0.077    0.335    0.105    0.172   45.720   45.717   45.727   45.715   45.718   45.718   45.720   45.722   45.718   45.717  
   115.9     0.165    0.239    1.734    0.441    0.548    0.027    0.085    0.356    0.125    0.177   45.719   45.718   45.729   45.719   45.719   45.723   45.718   45.723   45.719   45.719  
   121.9     0.160    0.266    1.808    0.454    0.586    0.039    0.101    0.401    0.134    0.189   45.722   45.721   45.731   45.719   45.719   45.727   45.720   45.723   45.719   45.718  
   127.9     0.187    0.276    1.673    0.497    0.716    0.043    0.118    0.453    0.138    0.187   45.720   45.718   45.726   45.714   45.717   45.721   45.719   45.722   45.718   45.716  
   133.9     0.198    0.287    1.786    0.539    0.904    0.049    0.133    0.480    0.151    0.209   45.719   45.717   45.727   45.717   45.718   45.720   45.718   45.724   45.721   45.717  
   139.9     0.300    0.309    1.913    0.572    0.680    0.050    0.124    0.522    0.160    0.231   45.718   45.716   45.726   45.718   45.718   45.721   45.721   45.725   45.723   45.717  
   145.8     0.339    0.336    2.131    0.603    0.685    0.070    0.142    0.591    0.174    0.261   45.718   45.718   45.726   45.717   45.719   45.721   45.720   45.722   45.721   45.720  
   151.8     0.290    0.344    2.223    0.634    0.777    0.082    0.170    0.687    0.202    0.269   45.719   45.719   45.724   45.718   45.719   45.721   45.721   45.724   45.721   45.720  
   157.8     0.321    0.367    2.397    0.685    0.803    0.082    0.178    0.665    0.224    0.271   45.719   45.718   45.726   45.716   45.721   45.722   45.719   45.727   45.722   45.721  
   163.8     0.368    0.412    2.399    0.725    0.911    0.071    0.120    0.724    0.254    0.324   45.721   45.720   45.725   45.717   45.723   45.723   45.720   45.726   45.721   45.722  
   169.8     0.385    0.422    2.462    0.698    1.132    0.079    0.164    0.703    0.254    0.321   45.716   45.715   45.722   45.714   45.716   45.716   45.713   45.720   45.717   45.716  
   175.7     0.392    0.449    2.733    0.664    0.971    0.084    0.177    0.740    0.257    0.350   45.718   45.717   45.723   45.714   45.718   45.717   45.715   45.719   45.718   45.717  
   181.7     0.402    0.440    2.990    0.863    0.999    0.101    0.178    0.786    0.293    0.421   45.720   45.717   45.720   45.717   45.717   45.719   45.713   45.720   45.717   45.717  
   187.7     0.427    0.473    3.082    0.899    1.018    0.112    0.203    0.873    0.315    0.434   45.718   45.720   45.720   45.719   45.716   45.719   45.716   45.723   45.718   45.718  
   193.7     0.468    0.484    3.365    0.956    1.039    0.122    0.253    0.948    0.334    0.531   45.718   45.718   45.721   45.719   45.715   45.721   45.717   45.723   45.716   45.717  
   199.7     0.483    0.542    3.384    0.996    1.144    0.142    0.258    0.936    0.360    0.522   45.720   45.718   45.721   45.719   45.715   45.721   45.717   45.723   45.719   45.717  
   205.6     0.516    0.577    3.246    0.997    1.196    0.152    0.262    0.955    0.377    0.592   45.721   45.720   45.721   45.718   45.717   45.722   45.720   45.723   45.719   45.720  
   211.6     0.524    0.588    3.329    1.058    1.326    0.146    0.269    0.946    0.389    0.644   45.717   45.717   45.719   45.716   45.716   45.720   45.718   45.722   45.716   45.718  
   217.6     0.534    0.618    3.245    1.228    1.413    0.185    0.281    0.968    0.422    0.638   45.720   45.719   45.720   45.717   45.717   45.721   45.718   45.722   45.718   45.718  
   223.6     0.572    0.710    3.200    1.341    1.759    0.177    0.305    1.024    0.427    0.641   45.718   45.717   45.721   45.717   45.716   45.721   45.718   45.721   45.718   45.719  
   229.6     0.622    0.782    2.821    1.407    1.699    0.187    0.296    1.162    0.468    0.645   45.719   45.718   45.721   45.716   45.717   45.722   45.721   45.722   45.718   45.718  
   235.5     0.583    0.806    3.008    1.281    1.743    0.258    0.385    1.232    0.481    0.659   45.718   45.717   45.720   45.716   45.717   45.722   45.718   45.722   45.718   45.717  
   241.5     0.688    0.812    3.279    1.323    1.695    0.316    0.378    1.348    0.540    0.692   45.720   45.721   45.722   45.717   45.717   45.723   45.718   45.722   45.720   45.717  
   247.5     0.764    0.836    3.273    1.421    1.807    0.380    0.381    1.439    0.582    0.717   45.722   45.722   45.723   45.716   45.719   45.724   45.719   45.722   45.720   45.718  
   253.5     0.691    0.895    3.282    1.401    1.894    0.357    0.427    1.545    0.589    0.757   45.719   45.719   45.721   45.716   45.717   45.722   45.715   45.719   45.716   45.715  
   259.5     0.706    0.968    3.324    1.425    1.867    0.350    0.446    1.701    0.635    0.812   45.723   45.720   45.720   45.715   45.717   45.722   45.718   45.722   45.716   45.717  
   265.4     0.876    0.946    3.357    1.256    1.890    0.414    0.490    1.715    0.714    0.864   45.722   45.721   45.720   45.716   45.719   45.719   45.719   45.722   45.714   45.719  
   271.4     1.003    1.028    3.592    1.285    1.945    0.425    0.496    1.901    0.776    0.914   45.725   45.722   45.723   45.718   45.720   45.721   45.717   45.723   45.716   45.720  
   277.4     1.103    1.063    3.571    1.307    1.966    0.300    0.530    1.902    0.760    0.959   45.725   45.722   45.721   45.718   45.719   45.719   45.718   45.724   45.716   45.720  
   283.4     0.848    1.082    3.713    1.384    2.008    0.427    0.551    2.075    0.783    0.960   45.725   45.723   45.725   45.718   45.721   45.721   45.719   45.722   45.719   45.722  
   289.4     0.797    1.130    3.738    1.456    2.080    0.460    0.561    2.188    0.800    1.004   45.727   45.722   45.727   45.720   45.720   45.723   45.721   45.724   45.725   45.722  
   295.3     0.786    1.178    3.844    1.584    2.118    0.547    0.569    2.233    0.746    1.065   45.725   45.721   45.724   45.719   45.722   45.723   45.718   45.724   45.723   45.723  
   301.3     0.768    1.103    3.797    1.682    2.136    0.562    0.586    2.465    0.817    1.122   45.726   45.720   45.724   45.719   45.722   45.724   45.721   45.726   45.722   45.722  
   307.3     0.967    1.162    3.833    1.808    2.251    0.532    0.586    2.459    0.838    1.185   45.725   45.720   45.723   45.722   45.725   45.726   45.723   45.727   45.721   45.721  
   313.3     1.101    1.209    4.027    1.732    2.102    0.709    0.614    2.534    0.844    1.367   45.726   45.722   45.728   45.720   45.725   45.727   45.724   45.726   45.721   45.722  
   319.3     1.071    1.195    4.445    1.860    2.217    0.727    0.632    2.582    0.830    1.366   45.726   45.722   45.725   45.719   45.723   45.726   45.723   45.724   45.721   45.721  
   325.2     1.235    1.278    4.746    1.835    2.388    0.825    0.635    2.712    0.956    1.422   45.727   45.725   45.726   45.722   45.725   45.725   45.725   45.726   45.724   45.721  
   331.2     1.298    1.501    4.578    1.820    2.495    0.855    0.687    2.771    0.972    1.264   45.727   45.723   45.725   45.724   45.726   45.728   45.723   45.724   45.725   45.721  
   337.2     1.239    1.394    4.612    1.861    2.655    0.890    0.769    2.827    1.072    1.166   45.722   45.720   45.723   45.720   45.723   45.724   45.719   45.721   45.722   45.714  
   343.2     1.223    1.472    4.586    1.960    2.685    0.801    0.745    2.863    1.091    1.187   45.719   45.716   45.718   45.716   45.717   45.720   45.717   45.717   45.720   45.713  
   349.2     1.276    1.203    4.742    1.991    2.540    0.842    0.820    3.134    1.131    1.293   45.722   45.718   45.719   45.716   45.722   45.721   45.718   45.721   45.720   45.715  
   355.1     1.402    1.141    4.783    2.106    2.432    0.900    0.815    3.166    1.120    1.307   45.722   45.718   45.722   45.719   45.723   45.725   45.719   45.723   45.720   45.717  
   361.1     1.442    1.207    4.930    2.093    2.208    0.980    0.827    3.388    1.201    1.334   45.719   45.721   45.721   45.718   45.719   45.722   45.718   45.721   45.721   45.714  
   367.1     1.512    1.544    4.635    2.153    2.155    1.010    0.815    3.868    1.295    1.397   45.720   45.722   45.719   45.720   45.719   45.724   45.720   45.722   45.722   45.715  
   373.1     1.495    1.587    4.670    2.062    2.007    1.115    0.932    3.755    1.391    1.434   45.721   45.720   45.721   45.720   45.717   45.724   45.722   45.723   45.721   45.716  
   379.1     1.463    1.693    4.914    2.042    2.122    1.170    1.042    4.046    1.458    1.466   45.721   45.719   45.720   45.721   45.716   45.722   45.721   45.721   45.722   45.714  
   385.0     1.480    1.709    5.055    2.117    2.299    1.402    1.162    4.113    1.525    1.486   45.720   45.719   45.721   45.720   45.717   45.721   45.718   45.721   45.721   45.715  
   391.0     1.539    1.604    5.048    2.063    2.338    1.534    1.201    4.258    1.610    1.547   45.720   45.718   45.722   45.720   45.715   45.720   45.721   45.722   45.721   45.717  
   397.0     1.610    1.721    5.304    2.141    2.407    1.490    1.252    4.517    1.486    1.547   45.718   45.719   45.725   45.722   45.717   45.722   45.722   45.725   45.722   45.717  
   403.0     1.655    1.603    5.437    2.109    2.529    1.575    1.386    4.430    1.488    1.667   45.719   45.720   45.725   45.720   45.715   45.723   45.721   45.723   45.721   45.718  
   409.0     1.652    1.564    5.801    2.215    2.561    1.723    1.324    4.690    1.695    1.790   45.721   45.721   45.724   45.720   45.718   45.723   45.719   45.724   45.721   45.718  
   414.9     1.655    1.767    5.860    2.295    2.638    1.763    1.423    4.531    1.742    1.861   45.724   45.722   45.722   45.721   45.717   45.723   45.720   45.725   45.723   45.719  
   420.9     1.689    1.917    5.956    2.318    2.644    1.739    1.577    4.527    1.913    1.893   45.722   45.722   45.724   45.724   45.717   45.722   45.718   45.725   45.720   45.718  
   426.9     1.816    2.137    5.802    2.533    2.928    1.746    1.683    4.629    1.903    1.923   45.720   45.721   45.720   45.721   45.713   45.720   45.718   45.723   45.720   45.715  
   432.9     1.887    2.168    5.576    2.596    3.015    1.786    1.642    5.139    1.966    2.076   45.720   45.722   45.721   45.725   45.714   45.725   45.717   45.727   45.722   45.716  
   438.9     1.974    2.150    5.778    2.355    2.706    1.858    1.634    5.433    1.975    2.227   45.719   45.723   45.723   45.726   45.718   45.726   45.718   45.725   45.724   45.720  
   444.8     2.106    2.179    5.951    1.933    3.200    1.805    1.807    5.424    1.906    2.245   45.718   45.722   45.721   45.723   45.717   45.725   45.721   45.723   45.723   45.719  
   450.8     2.001    2.149    5.854    1.942    3.269    1.935    1.884    5.297    2.000    2.274   45.719   45.723   45.722   45.727   45.716   45.725   45.721   45.726   45.723   45.721  
   456.8     1.857    1.999    5.823    2.123    3.151    2.033    1.981    5.739    2.061    2.335   45.719   45.723   45.724   45.728   45.716   45.724   45.719   45.724   45.722   45.721  
   462.8     2.000    2.249    5.902    2.270    3.169    2.147    1.957    5.957    2.011    2.427   45.721   45.723   45.724   45.730   45.718   45.725   45.722   45.725   45.725   45.722  
   468.8     2.020    2.193    6.091    2.059    2.886    2.236    2.012    6.040    2.152    2.536   45.724   45.722   45.723   45.725   45.716   45.724   45.720   45.725   45.724   45.721  
   474.7     2.108    2.310    6.308    2.054    2.753    2.160    2.160    6.001    2.268    2.621   45.724   45.725   45.723   45.726   45.717   45.723   45.722   45.726   45.727   45.724  
   480.7     2.097    2.124    6.441    2.004    2.938    2.246    2.280    6.236    2.171    2.713   45.724   45.724   45.725   45.728   45.719   45.724   45.725   45.728   45.727   45.722  
   486.7     2.049    2.347    6.650    2.143    3.024    2.155    2.260    6.399    1.962    2.799   45.722   45.724   45.725   45.727   45.719   45.724   45.725   45.727   45.727   45.722  
   492.7     2.037    2.320    6.972    2.365    2.976    2.231    2.333    6.345    2.152    3.000   45.724   45.725   45.725   45.728   45.720   45.724   45.724   45.725   45.729   45.721  
