Wed Jun 09 19:00:57 2021

21.06.02-03_007.top image. S05

Comment: Graphite ni

Us modulation: OFF; Frq(Hz): 1333; Amp(mV): 2.00;
Us base(mV): 50; It setpoint(nA): 0.5;
Us Start(mV): -500; End(mV): 498; Step(mV): 5.98;
Us sweep rate(mV/s): 50.0; sweep delay(ms): 10;
Ccomp modulation: OFF; Amp(mV): 0.0; Phase(deg): 0.0
Lock-in input params
      Sensitivity(mV): ; Phase(deg): ;
      LPF - freq(Hz):      0; slope(dB/oct): 0;
      HPF - freq(Hz):      0; slope(dB/oct): 0;
Lock-in output params
      Time constant(ms): 0; Gain: ;
      LPF - freq(Hz):      0; slope(dB/oct): 0;
dIt scale coeff(nA/V): 

Number of STS scans: 5
Position(A) relatively to left-bottom corner: (8.3,9.9)

   Usamp    It01F    It02F    It03F    It04F    It05F    It01B    It02B    It03B    It04B    It05B    dI01F    dI02F    dI03F    dI04F    dI05F    dI01B    dI02B    dI03B    dI04B    dI05B   

  -500.0    -3.029   -2.255   -2.569   -3.393   -5.055   -0.044   -0.078   -0.082   -0.147   -0.173   45.751   45.743   45.744   45.737   45.742   45.749   45.749   45.748   45.741   45.751  
  -494.0    -3.027   -2.187   -2.289   -3.756   -4.921   -0.044   -0.088   -0.072   -0.140   -0.178   45.754   45.742   45.747   45.738   45.740   45.752   45.748   45.747   45.743   45.755  
  -488.0    -2.534   -2.153   -2.134   -3.894   -4.892   -0.043   -0.075   -0.069   -0.139   -0.178   45.751   45.739   45.744   45.737   45.739   45.750   45.749   45.748   45.743   45.751  
  -482.1    -2.563   -2.230   -2.106   -3.781   -4.983   -0.044   -0.079   -0.073   -0.140   -0.179   45.749   45.743   45.746   45.740   45.741   45.751   45.749   45.748   45.743   45.753  
  -476.1    -2.824   -2.030   -1.971   -3.960   -4.753   -0.039   -0.072   -0.071   -0.142   -0.207   45.750   45.743   45.746   45.739   45.741   45.752   45.750   45.749   45.743   45.754  
  -470.1    -2.751   -1.989   -1.973   -3.722   -4.608   -0.033   -0.070   -0.063   -0.143   -0.195   45.751   45.742   45.744   45.740   45.740   45.755   45.750   45.749   45.742   45.752  
  -464.1    -2.567   -1.884   -2.122   -3.699   -4.344   -0.037   -0.071   -0.063   -0.130   -0.164   45.750   45.742   45.742   45.737   45.740   45.752   45.749   45.749   45.743   45.751  
  -458.1    -2.616   -1.854   -1.994   -3.564   -4.092   -0.037   -0.069   -0.061   -0.122   -0.165   45.749   45.743   45.742   45.739   45.743   45.753   45.749   45.749   45.744   45.754  
  -452.2    -2.564   -1.812   -1.876   -3.605   -4.089   -0.038   -0.065   -0.062   -0.129   -0.153   45.747   45.745   45.746   45.743   45.743   45.754   45.750   45.750   45.744   45.754  
  -446.2    -2.269   -1.627   -1.730   -3.433   -4.206   -0.039   -0.066   -0.057   -0.127   -0.171   45.745   45.744   45.746   45.743   45.741   45.754   45.748   45.749   45.743   45.754  
  -440.2    -2.280   -1.494   -1.730   -3.244   -4.017   -0.036   -0.064   -0.059   -0.133   -0.170   45.749   45.745   45.747   45.745   45.742   45.754   45.748   45.751   45.745   45.755  
  -434.2    -2.100   -1.496   -1.730   -3.008   -4.048   -0.037   -0.066   -0.064   -0.129   -0.171   45.752   45.749   45.748   45.746   45.742   45.755   45.746   45.750   45.744   45.755  
  -428.2    -1.957   -1.372   -1.541   -2.690   -4.110   -0.040   -0.062   -0.062   -0.118   -0.151   45.752   45.744   45.745   45.743   45.741   45.751   45.747   45.750   45.744   45.749  
  -422.3    -1.819   -1.462   -1.469   -2.568   -4.323   -0.040   -0.065   -0.064   -0.116   -0.149   45.748   45.746   45.746   45.740   45.738   45.751   45.745   45.748   45.743   45.747  
  -416.3    -1.686   -1.285   -1.507   -2.586   -4.576   -0.038   -0.063   -0.062   -0.112   -0.142   45.752   45.744   45.748   45.741   45.740   45.755   45.744   45.746   45.745   45.749  
  -410.3    -1.758   -1.346   -1.497   -2.522   -4.169   -0.038   -0.060   -0.059   -0.113   -0.140   45.752   45.747   45.749   45.741   45.742   45.755   45.745   45.752   45.745   45.751  
  -404.3    -1.689   -1.308   -1.530   -2.398   -3.695   -0.038   -0.057   -0.059   -0.115   -0.142   45.752   45.743   45.744   45.740   45.741   45.753   45.746   45.750   45.743   45.747  
  -398.3    -1.677   -1.152   -1.379   -2.334   -3.703   -0.038   -0.056   -0.057   -0.115   -0.144   45.755   45.744   45.746   45.741   45.743   45.754   45.748   45.751   45.744   45.750  
  -392.4    -1.401   -1.072   -1.333   -2.355   -3.825   -0.037   -0.058   -0.055   -0.118   -0.148   45.757   45.745   45.746   45.743   45.742   45.756   45.751   45.752   45.747   45.752  
  -386.4    -1.363   -0.992   -1.260   -2.573   -3.518   -0.037   -0.056   -0.055   -0.118   -0.149   45.755   45.748   45.744   45.741   45.744   45.754   45.751   45.751   45.748   45.751  
  -380.4    -1.446   -1.044   -1.189   -2.994   -3.454   -0.034   -0.058   -0.055   -0.110   -0.135   45.754   45.747   45.744   45.742   45.744   45.754   45.749   45.749   45.744   45.750  
  -374.4    -1.408   -0.978   -1.177   -2.599   -3.154   -0.032   -0.058   -0.054   -0.113   -0.136   45.754   45.746   45.747   45.741   45.747   45.754   45.749   45.753   45.744   45.752  
  -368.4    -1.192   -1.006   -1.113   -2.341   -3.109   -0.031   -0.055   -0.054   -0.107   -0.134   45.752   45.747   45.744   45.740   45.748   45.753   45.752   45.756   45.746   45.754  
  -362.5    -1.019   -0.921   -1.048   -2.245   -3.156   -0.031   -0.054   -0.051   -0.109   -0.136   45.754   45.747   45.745   45.743   45.746   45.756   45.752   45.756   45.746   45.747  
  -356.5    -0.897   -0.870   -1.030   -2.055   -3.163   -0.030   -0.050   -0.049   -0.112   -0.132   45.755   45.751   45.749   45.743   45.747   45.753   45.753   45.757   45.744   45.748  
  -350.5    -0.892   -0.771   -1.015   -2.204   -3.186   -0.031   -0.049   -0.051   -0.109   -0.132   45.756   45.751   45.747   45.742   45.747   45.751   45.753   45.757   45.745   45.751  
  -344.5    -0.870   -0.731   -0.964   -2.153   -2.987   -0.032   -0.049   -0.047   -0.112   -0.128   45.756   45.751   45.748   45.744   45.747   45.749   45.750   45.755   45.746   45.751  
  -338.5    -0.793   -0.713   -0.901   -1.811   -2.523   -0.033   -0.047   -0.048   -0.107   -0.125   45.752   45.746   45.744   45.738   45.742   45.746   45.743   45.752   45.742   45.749  
  -332.6    -0.783   -0.709   -0.893   -1.773   -2.989   -0.033   -0.047   -0.049   -0.109   -0.137   45.753   45.747   45.745   45.740   45.743   45.746   45.745   45.752   45.742   45.748  
  -326.6    -0.756   -0.682   -0.848   -1.693   -2.811   -0.032   -0.047   -0.046   -0.109   -0.102   45.753   45.748   45.746   45.740   45.745   45.747   45.749   45.757   45.743   45.752  
  -320.6    -0.716   -0.586   -0.901   -1.555   -2.712   -0.032   -0.056   -0.045   -0.105   -0.110   45.754   45.748   45.745   45.740   45.744   45.750   45.746   45.755   45.742   45.751  
  -314.6    -0.693   -0.580   -0.813   -1.447   -2.499   -0.031   -0.057   -0.043   -0.097   -0.107   45.756   45.747   45.746   45.743   45.741   45.753   45.749   45.753   45.744   45.749  
  -308.6    -0.642   -0.566   -0.737   -1.273   -2.405   -0.031   -0.050   -0.043   -0.095   -0.102   45.756   45.749   45.747   45.740   45.740   45.753   45.749   45.756   45.745   45.750  
  -302.7    -0.551   -0.528   -0.720   -1.230   -2.486   -0.032   -0.041   -0.043   -0.092   -0.113   45.759   45.749   45.746   45.740   45.743   45.753   45.747   45.756   45.745   45.754  
  -296.7    -0.535   -0.517   -0.702   -1.088   -2.447   -0.031   -0.038   -0.040   -0.085   -0.121   45.755   45.748   45.745   45.740   45.737   45.750   45.746   45.757   45.745   45.753  
  -290.7    -0.531   -0.541   -0.617   -1.156   -2.180   -0.032   -0.040   -0.038   -0.081   -0.106   45.756   45.745   45.744   45.739   45.741   45.751   45.749   45.756   45.747   45.751  
  -284.7    -0.533   -0.501   -0.581   -1.079   -2.097   -0.031   -0.039   -0.038   -0.079   -0.097   45.755   45.747   45.745   45.743   45.743   45.752   45.749   45.755   45.747   45.752  
  -278.7    -0.509   -0.489   -0.560   -1.011   -2.129   -0.030   -0.038   -0.037   -0.069   -0.097   45.755   45.745   45.747   45.745   45.746   45.750   45.746   45.749   45.744   45.749  
  -272.8    -0.476   -0.458   -0.568   -0.959   -2.071   -0.030   -0.038   -0.038   -0.064   -0.093   45.755   45.747   45.747   45.745   45.744   45.753   45.750   45.754   45.746   45.756  
  -266.8    -0.438   -0.447   -0.508   -0.947   -2.209   -0.030   -0.034   -0.036   -0.066   -0.086   45.757   45.748   45.747   45.741   45.746   45.750   45.751   45.755   45.747   45.754  
  -260.8    -0.446   -0.420   -0.523   -0.878   -1.968   -0.030   -0.034   -0.037   -0.068   -0.092   45.758   45.748   45.749   45.744   45.747   45.750   45.754   45.753   45.749   45.753  
  -254.8    -0.400   -0.400   -0.483   -0.785   -1.793   -0.028   -0.034   -0.036   -0.069   -0.088   45.754   45.746   45.741   45.741   45.744   45.750   45.749   45.748   45.742   45.748  
  -248.8    -0.370   -0.375   -0.437   -0.737   -1.816   -0.028   -0.035   -0.038   -0.071   -0.089   45.756   45.757   45.741   45.744   45.744   45.754   45.749   45.748   45.745   45.749  
  -242.9    -0.338   -0.346   -0.430   -0.691   -1.648   -0.026   -0.034   -0.036   -0.086   -0.082   45.751   45.757   45.745   45.744   45.748   45.750   45.750   45.748   45.746   45.751  
  -236.9    -0.326   -0.356   -0.394   -0.652   -1.603   -0.028   -0.034   -0.035   -0.088   -0.079   45.750   45.758   45.745   45.742   45.746   45.751   45.752   45.749   45.745   45.753  
  -230.9    -0.322   -0.340   -0.386   -0.665   -1.494   -0.028   -0.032   -0.033   -0.088   -0.077   45.744   45.759   45.744   45.744   45.745   45.751   45.751   45.748   45.748   45.750  
  -224.9    -0.294   -0.306   -0.355   -0.624   -1.386   -0.027   -0.031   -0.032   -0.088   -0.072   45.745   45.755   45.745   45.745   45.745   45.751   45.751   45.750   45.746   45.751  
  -218.9    -0.285   -0.308   -0.334   -0.583   -1.416   -0.024   -0.030   -0.033   -0.073   -0.079   45.747   45.757   45.748   45.745   45.748   45.754   45.752   45.750   45.747   45.750  
  -213.0    -0.257   -0.298   -0.314   -0.511   -1.350   -0.025   -0.033   -0.034   -0.079   -0.084   45.747   45.755   45.740   45.744   45.746   45.749   45.745   45.746   45.744   45.745  
  -207.0    -0.242   -0.272   -0.320   -0.498   -1.303   -0.028   -0.032   -0.032   -0.079   -0.085   45.750   45.757   45.745   45.742   45.746   45.750   45.746   45.748   45.744   45.750  
  -201.0    -0.259   -0.248   -0.302   -0.485   -1.004   -0.024   -0.033   -0.030   -0.074   -0.100   45.750   45.759   45.745   45.743   45.744   45.752   45.749   45.750   45.746   45.751  
  -195.0    -0.271   -0.247   -0.264   -0.477   -1.086   -0.022   -0.033   -0.027   -0.067   -0.096   45.746   45.757   45.748   45.745   45.747   45.755   45.751   45.750   45.746   45.753  
  -189.0    -0.234   -0.231   -0.245   -0.422   -0.917   -0.022   -0.033   -0.028   -0.070   -0.094   45.751   45.756   45.750   45.747   45.748   45.755   45.750   45.749   45.747   45.752  
  -183.1    -0.196   -0.211   -0.230   -0.411   -0.671   -0.022   -0.032   -0.029   -0.070   -0.083   45.749   45.757   45.752   45.745   45.749   45.757   45.752   45.751   45.748   45.754  
  -177.1    -0.210   -0.200   -0.229   -0.420   -0.710   -0.022   -0.030   -0.029   -0.069   -0.073   45.750   45.758   45.751   45.745   45.749   45.757   45.752   45.751   45.748   45.756  
  -171.1    -0.200   -0.210   -0.243   -0.448   -0.644   -0.022   -0.029   -0.029   -0.069   -0.086   45.745   45.755   45.744   45.741   45.743   45.751   45.746   45.746   45.743   45.748  
  -165.1    -0.187   -0.183   -0.225   -0.421   -0.490   -0.022   -0.030   -0.028   -0.060   -0.080   45.746   45.758   45.747   45.742   45.745   45.751   45.748   45.747   45.745   45.751  
  -159.1    -0.180   -0.163   -0.210   -0.403   -0.506   -0.025   -0.031   -0.026   -0.057   -0.066   45.747   45.756   45.749   45.742   45.743   45.751   45.747   45.746   45.744   45.752  
  -153.2    -0.170   -0.165   -0.183   -0.388   -0.456   -0.025   -0.031   -0.025   -0.055   -0.061   45.745   45.757   45.751   45.742   45.745   45.753   45.749   45.745   45.746   45.751  
  -147.2    -0.163   -0.177   -0.173   -0.335   -0.467   -0.025   -0.029   -0.024   -0.054   -0.054   45.742   45.759   45.749   45.743   45.746   45.752   45.749   45.746   45.743   45.754  
  -141.2    -0.156   -0.155   -0.165   -0.304   -0.484   -0.026   -0.028   -0.024   -0.053   -0.052   45.742   45.758   45.750   45.741   45.747   45.751   45.753   45.748   45.746   45.750  
  -135.2    -0.146   -0.133   -0.151   -0.312   -0.334   -0.024   -0.030   -0.023   -0.052   -0.050   45.744   45.757   45.751   45.742   45.748   45.752   45.754   45.751   45.746   45.752  
  -129.2    -0.135   -0.133   -0.141   -0.294   -0.319   -0.024   -0.029   -0.024   -0.050   -0.048   45.741   45.753   45.749   45.740   45.747   45.752   45.749   45.746   45.744   45.750  
  -123.3    -0.113   -0.115   -0.130   -0.257   -0.271   -0.023   -0.030   -0.022   -0.045   -0.046   45.745   45.756   45.750   45.739   45.748   45.752   45.751   45.748   45.746   45.752  
  -117.3    -0.114   -0.102   -0.123   -0.229   -0.257   -0.021   -0.030   -0.022   -0.048   -0.045   45.749   45.758   45.750   45.743   45.750   45.753   45.752   45.747   45.748   45.750  
  -111.3    -0.106   -0.105   -0.123   -0.218   -0.252   -0.021   -0.031   -0.021   -0.044   -0.045   45.751   45.757   45.751   45.747   45.751   45.757   45.755   45.751   45.749   45.754  
  -105.3    -0.099   -0.098   -0.114   -0.197   -0.217   -0.020   -0.029   -0.022   -0.042   -0.047   45.752   45.757   45.753   45.745   45.754   45.757   45.754   45.749   45.749   45.755  
   -99.3    -0.094   -0.089   -0.106   -0.184   -0.184   -0.019   -0.028   -0.022   -0.041   -0.044   45.753   45.761   45.753   45.746   45.752   45.758   45.757   45.753   45.749   45.755  
   -93.4    -0.084   -0.082   -0.097   -0.156   -0.180   -0.019   -0.028   -0.021   -0.039   -0.045   45.751   45.763   45.752   45.745   45.754   45.758   45.758   45.753   45.750   45.754  
   -87.4    -0.078   -0.076   -0.084   -0.148   -0.160   -0.018   -0.025   -0.021   -0.039   -0.042   45.747   45.757   45.749   45.743   45.750   45.754   45.755   45.746   45.746   45.751  
   -81.4    -0.071   -0.065   -0.077   -0.140   -0.148   -0.018   -0.024   -0.021   -0.034   -0.039   45.747   45.757   45.747   45.740   45.750   45.753   45.754   45.746   45.746   45.752  
   -75.4    -0.063   -0.065   -0.071   -0.136   -0.130   -0.017   -0.024   -0.020   -0.030   -0.036   45.747   45.759   45.748   45.742   45.748   45.753   45.752   45.745   45.747   45.751  
   -69.4    -0.059   -0.062   -0.067   -0.120   -0.112   -0.017   -0.022   -0.019   -0.029   -0.037   45.747   45.760   45.750   45.746   45.752   45.754   45.755   45.751   45.748   45.753  
   -63.5    -0.054   -0.057   -0.063   -0.107   -0.107   -0.017   -0.021   -0.019   -0.026   -0.037   45.748   45.761   45.749   45.743   45.748   45.755   45.754   45.753   45.747   45.750  
   -57.5    -0.050   -0.052   -0.053   -0.100   -0.097   -0.017   -0.021   -0.019   -0.026   -0.037   45.750   45.762   45.749   45.745   45.750   45.757   45.754   45.752   45.750   45.752  
   -51.5    -0.046   -0.046   -0.049   -0.100   -0.090   -0.016   -0.020   -0.018   -0.025   -0.032   45.749   45.761   45.750   45.747   45.750   45.757   45.755   45.754   45.750   45.753  
   -45.5    -0.040   -0.044   -0.045   -0.084   -0.072   -0.016   -0.019   -0.018   -0.025   -0.031   45.749   45.757   45.750   45.747   45.750   45.755   45.753   45.752   45.752   45.752  
   -39.5    -0.034   -0.037   -0.039   -0.063   -0.064   -0.015   -0.018   -0.017   -0.021   -0.028   45.748   45.760   45.749   45.749   45.752   45.756   45.754   45.752   45.754   45.754  
   -33.6    -0.030   -0.034   -0.035   -0.056   -0.054   -0.015   -0.016   -0.016   -0.020   -0.027   45.749   45.760   45.749   45.751   45.753   45.753   45.758   45.749   45.754   45.756  
   -27.6    -0.028   -0.031   -0.028   -0.050   -0.046   -0.015   -0.016   -0.015   -0.019   -0.024   45.751   45.760   45.752   45.751   45.753   45.756   45.758   45.751   45.756   45.756  
   -21.6    -0.024   -0.025   -0.023   -0.039   -0.036   -0.015   -0.015   -0.015   -0.019   -0.021   45.752   45.761   45.751   45.750   45.754   45.756   45.756   45.751   45.755   45.757  
   -15.6    -0.020   -0.020   -0.021   -0.030   -0.030   -0.014   -0.014   -0.014   -0.017   -0.018   45.757   45.764   45.751   45.752   45.755   45.757   45.759   45.753   45.754   45.759  
    -9.6    -0.016   -0.016   -0.017   -0.020   -0.021   -0.014   -0.014   -0.013   -0.015   -0.016   45.756   45.764   45.752   45.751   45.758   45.755   45.760   45.753   45.751   45.757  
    -3.7    -0.013   -0.012   -0.012   -0.013   -0.013   -0.013   -0.013   -0.013   -0.013   -0.013   45.751   45.754   45.747   45.746   45.752   45.749   45.753   45.748   45.747   45.752  
     2.3    -0.010   -0.009   -0.009   -0.007   -0.003   -0.013   -0.013   -0.013   -0.011   -0.011   45.743   45.750   45.740   45.738   45.741   45.745   45.748   45.740   45.741   45.747  
     8.3    -0.006   -0.006   -0.005    0.002    0.007   -0.013   -0.012   -0.013   -0.008   -0.008   45.740   45.750   45.738   45.732   45.733   45.747   45.748   45.742   45.742   45.744  
    14.3    -0.002   -0.003   -0.001    0.008    0.017   -0.012   -0.011   -0.012   -0.005   -0.005   45.737   45.747   45.738   45.732   45.730   45.749   45.746   45.742   45.741   45.747  
    20.3     0.001    0.002    0.004    0.016    0.022   -0.012   -0.010   -0.012   -0.005   -0.002   45.734   45.740   45.731   45.728   45.729   45.746   45.747   45.741   45.741   45.743  
    26.2     0.005    0.005    0.007    0.025    0.032   -0.012   -0.009   -0.011   -0.002    0.001   45.732   45.741   45.729   45.730   45.731   45.747   45.747   45.740   45.739   45.741  
    32.2     0.011    0.006    0.010    0.032    0.042   -0.011   -0.008   -0.011   -0.000    0.006   45.730   45.741   45.731   45.729   45.731   45.748   45.749   45.744   45.738   45.736  
    38.2     0.017    0.008    0.015    0.041    0.060   -0.011   -0.007   -0.010    0.004    0.008   45.729   45.741   45.729   45.727   45.733   45.751   45.749   45.744   45.735   45.735  
    44.2     0.019    0.016    0.021    0.047    0.065   -0.010   -0.007   -0.009    0.005    0.013   45.728   45.736   45.729   45.726   45.730   45.750   45.746   45.741   45.733   45.732  
    50.2     0.023    0.019    0.024    0.055    0.066   -0.009   -0.006   -0.008    0.005    0.016   45.731   45.738   45.730   45.724   45.733   45.749   45.747   45.743   45.732   45.734  
    56.1     0.025    0.017    0.029    0.060    0.071   -0.009   -0.005   -0.008    0.010    0.017   45.731   45.740   45.730   45.726   45.734   45.751   45.746   45.746   45.732   45.734  
    62.1     0.029    0.021    0.031    0.068    0.090   -0.008   -0.004   -0.007    0.012    0.020   45.733   45.738   45.731   45.727   45.735   45.749   45.744   45.743   45.729   45.732  
    68.1     0.034    0.026    0.032    0.072    0.093   -0.007   -0.002   -0.007    0.019    0.023   45.732   45.740   45.732   45.727   45.732   45.750   45.743   45.745   45.730   45.734  
    74.1     0.037    0.032    0.040    0.085    0.099   -0.007   -0.000   -0.006    0.021    0.033   45.730   45.738   45.731   45.728   45.735   45.750   45.742   45.744   45.732   45.732  
    80.1     0.040    0.039    0.047    0.107    0.106   -0.006    0.002   -0.005    0.023    0.039   45.728   45.740   45.731   45.731   45.736   45.749   45.739   45.743   45.732   45.732  
    86.0     0.038    0.043    0.049    0.110    0.118   -0.006    0.003   -0.005    0.027    0.043   45.726   45.737   45.728   45.730   45.729   45.746   45.734   45.741   45.730   45.730  
    92.0     0.044    0.045    0.053    0.111    0.126   -0.005    0.005   -0.004    0.038    0.054   45.729   45.738   45.729   45.728   45.734   45.747   45.734   45.743   45.729   45.732  
    98.0     0.042    0.050    0.057    0.126    0.140   -0.004    0.005   -0.003    0.042    0.065   45.729   45.739   45.728   45.728   45.732   45.744   45.736   45.744   45.732   45.730  
   104.0     0.050    0.055    0.060    0.123    0.172   -0.004    0.007   -0.001    0.041    0.071   45.729   45.739   45.729   45.729   45.733   45.743   45.733   45.740   45.733   45.732  
   110.0     0.055    0.061    0.069    0.138    0.197   -0.000    0.010    0.001    0.075    0.080   45.731   45.740   45.728   45.729   45.734   45.743   45.734   45.742   45.737   45.733  
   115.9     0.058    0.068    0.079    0.149    0.216    0.001    0.011    0.002    0.111    0.083   45.731   45.739   45.731   45.728   45.736   45.740   45.734   45.741   45.738   45.734  
   121.9     0.058    0.075    0.082    0.171    0.219    0.002    0.012    0.003    0.072    0.090   45.732   45.742   45.729   45.730   45.736   45.741   45.736   45.739   45.738   45.737  
   127.9     0.065    0.076    0.084    0.180    0.218    0.002    0.012    0.005    0.067    0.096   45.731   45.737   45.728   45.726   45.732   45.737   45.733   45.736   45.736   45.735  
   133.9     0.086    0.090    0.089    0.180    0.229    0.003    0.016    0.006    0.084    0.109   45.730   45.740   45.729   45.726   45.731   45.740   45.733   45.737   45.736   45.735  
   139.9     0.082    0.096    0.095    0.202    0.218    0.002    0.018    0.010    0.084    0.118   45.730   45.742   45.730   45.728   45.736   45.742   45.734   45.736   45.735   45.732  
   145.8     0.079    0.108    0.095    0.205    0.248    0.004    0.019    0.011    0.103    0.122   45.733   45.741   45.731   45.728   45.736   45.735   45.733   45.735   45.735   45.736  
   151.8     0.095    0.114    0.108    0.214    0.259    0.010    0.021    0.012    0.114    0.124   45.732   45.740   45.732   45.730   45.736   45.732   45.732   45.735   45.736   45.735  
   157.8     0.094    0.118    0.113    0.235    0.276    0.008    0.021    0.012    0.119    0.143   45.733   45.741   45.731   45.729   45.737   45.735   45.733   45.734   45.734   45.735  
   163.8     0.084    0.119    0.124    0.235    0.274    0.012    0.024    0.014    0.115    0.161   45.735   45.744   45.730   45.732   45.737   45.733   45.735   45.734   45.737   45.737  
   169.8     0.083    0.130    0.137    0.239    0.286    0.011    0.031    0.018    0.125    0.169   45.731   45.737   45.724   45.727   45.732   45.727   45.728   45.727   45.731   45.729  
   175.7     0.082    0.136    0.138    0.260    0.316    0.010    0.035    0.024    0.132    0.194   45.730   45.739   45.726   45.727   45.734   45.728   45.731   45.730   45.730   45.732  
   181.7     0.084    0.139    0.152    0.284    0.343    0.012    0.035    0.027    0.133    0.187   45.728   45.738   45.728   45.730   45.735   45.729   45.729   45.731   45.733   45.729  
   187.7     0.094    0.148    0.151    0.332    0.350    0.015    0.038    0.031    0.145    0.181   45.727   45.739   45.729   45.729   45.738   45.732   45.730   45.730   45.733   45.731  
   193.7     0.109    0.150    0.161    0.327    0.358    0.019    0.040    0.028    0.148    0.200   45.730   45.740   45.731   45.729   45.736   45.731   45.731   45.731   45.735   45.731  
   199.7     0.111    0.147    0.168    0.335    0.383    0.025    0.044    0.029    0.151    0.204   45.730   45.740   45.730   45.732   45.737   45.729   45.733   45.731   45.734   45.733  
   205.6     0.109    0.166    0.177    0.376    0.423    0.022    0.050    0.030    0.171    0.226   45.731   45.740   45.732   45.733   45.739   45.732   45.732   45.732   45.737   45.734  
   211.6     0.105    0.185    0.188    0.408    0.429    0.019    0.052    0.039    0.199    0.226   45.728   45.741   45.730   45.729   45.737   45.730   45.731   45.732   45.735   45.734  
   217.6     0.091    0.211    0.177    0.402    0.425    0.018    0.051    0.040    0.223    0.225   45.731   45.740   45.733   45.729   45.737   45.731   45.731   45.731   45.735   45.735  
   223.6     0.093    0.207    0.192    0.373    0.447    0.024    0.055    0.045    0.240    0.255   45.731   45.742   45.732   45.729   45.738   45.732   45.734   45.731   45.735   45.736  
   229.6     0.099    0.214    0.227    0.398    0.478    0.027    0.064    0.046    0.253    0.283   45.731   45.743   45.734   45.730   45.740   45.732   45.736   45.733   45.735   45.734  
   235.5     0.117    0.244    0.241    0.406    0.485    0.028    0.064    0.050    0.263    0.307   45.730   45.743   45.733   45.729   45.734   45.732   45.733   45.732   45.735   45.735  
   241.5     0.124    0.262    0.235    0.444    0.494    0.032    0.070    0.057    0.271    0.306   45.734   45.743   45.734   45.731   45.738   45.732   45.733   45.732   45.736   45.734  
   247.5     0.139    0.276    0.208    0.424    0.514    0.036    0.070    0.063    0.289    0.312   45.734   45.747   45.733   45.732   45.738   45.734   45.734   45.733   45.734   45.734  
   253.5     0.143    0.289    0.200    0.451    0.564    0.037    0.081    0.065    0.303    0.357   45.730   45.744   45.730   45.731   45.736   45.730   45.732   45.730   45.733   45.730  
   259.5     0.117    0.279    0.241    0.485    0.571    0.037    0.090    0.068    0.324    0.386   45.732   45.744   45.733   45.735   45.737   45.731   45.732   45.730   45.734   45.735  
   265.4     0.110    0.337    0.267    0.500    0.577    0.040    0.096    0.076    0.374    0.392   45.732   45.741   45.735   45.734   45.737   45.732   45.734   45.728   45.733   45.736  
   271.4     0.116    0.384    0.305    0.527    0.603    0.044    0.094    0.082    0.394    0.388   45.734   45.742   45.734   45.734   45.738   45.733   45.735   45.732   45.732   45.735  
   277.4     0.125    0.348    0.318    0.554    0.643    0.047    0.094    0.084    0.405    0.419   45.733   45.746   45.734   45.733   45.740   45.731   45.735   45.731   45.731   45.734  
   283.4     0.124    0.368    0.313    0.533    0.648    0.054    0.102    0.089    0.403    0.435   45.733   45.742   45.736   45.734   45.741   45.734   45.732   45.731   45.732   45.735  
   289.4     0.130    0.383    0.374    0.561    0.639    0.057    0.116    0.107    0.374    0.460   45.734   45.745   45.735   45.735   45.742   45.732   45.733   45.732   45.737   45.735  
   295.3     0.127    0.401    0.375    0.557    0.641    0.061    0.121    0.120    0.392    0.471   45.731   45.741   45.737   45.735   45.740   45.730   45.735   45.732   45.733   45.733  
   301.3     0.118    0.414    0.329    0.621    0.657    0.067    0.134    0.140    0.413    0.496   45.731   45.738   45.736   45.736   45.740   45.730   45.735   45.730   45.731   45.733  
   307.3     0.115    0.428    0.330    0.635    0.692    0.069    0.143    0.150    0.414    0.495   45.736   45.737   45.734   45.736   45.738   45.732   45.733   45.732   45.734   45.734  
   313.3     0.113    0.440    0.330    0.664    0.740    0.071    0.152    0.150    0.415    0.533   45.735   45.742   45.734   45.736   45.740   45.734   45.735   45.732   45.736   45.735  
   319.3     0.109    0.467    0.347    0.661    0.724    0.075    0.141    0.155    0.472    0.574   45.732   45.739   45.734   45.736   45.738   45.734   45.736   45.730   45.734   45.735  
   325.2     0.112    0.471    0.333    0.656    0.671    0.084    0.156    0.181    0.498    0.608   45.735   45.741   45.736   45.736   45.741   45.736   45.735   45.734   45.737   45.737  
   331.2     0.122    0.501    0.368    0.679    0.691    0.085    0.155    0.208    0.510    0.596   45.734   45.744   45.736   45.735   45.738   45.730   45.737   45.733   45.737   45.737  
   337.2     0.120    0.515    0.362    0.714    0.730    0.081    0.198    0.215    0.533    0.626   45.733   45.736   45.732   45.733   45.734   45.729   45.734   45.730   45.732   45.733  
   343.2     0.126    0.522    0.355    0.807    0.760    0.098    0.174    0.212    0.589    0.626   45.730   45.733   45.730   45.729   45.731   45.727   45.731   45.729   45.730   45.731  
   349.2     0.127    0.569    0.346    0.848    0.812    0.095    0.178    0.212    0.602    0.674   45.731   45.733   45.731   45.731   45.733   45.726   45.732   45.728   45.731   45.733  
   355.1     0.133    0.573    0.345    0.883    0.829    0.085    0.182    0.229    0.630    0.691   45.731   45.733   45.733   45.735   45.733   45.729   45.733   45.729   45.734   45.737  
   361.1     0.135    0.580    0.325    0.882    0.836    0.085    0.197    0.275    0.650    0.742   45.729   45.733   45.733   45.733   45.735   45.726   45.731   45.727   45.730   45.734  
   367.1     0.141    0.590    0.330    0.894    0.879    0.087    0.218    0.224    0.641    0.784   45.731   45.737   45.733   45.734   45.737   45.728   45.733   45.728   45.733   45.733  
   373.1     0.144    0.673    0.328    0.956    0.876    0.090    0.237    0.245    0.667    0.773   45.730   45.735   45.732   45.734   45.736   45.731   45.735   45.730   45.731   45.734  
   379.1     0.149    0.663    0.339    0.974    0.933    0.098    0.254    0.257    0.663    0.777   45.732   45.735   45.731   45.734   45.736   45.730   45.734   45.730   45.733   45.734  
   385.0     0.155    0.621    0.358    0.952    0.962    0.097    0.277    0.278    0.704    0.786   45.733   45.735   45.731   45.733   45.735   45.730   45.734   45.728   45.732   45.732  
   391.0     0.165    0.627    0.394    0.988    0.937    0.098    0.288    0.319    0.691    0.816   45.733   45.736   45.731   45.734   45.736   45.731   45.735   45.732   45.733   45.735  
   397.0     0.175    0.620    0.467    1.015    0.964    0.110    0.275    0.282    0.813    0.823   45.732   45.734   45.736   45.737   45.735   45.732   45.735   45.732   45.733   45.738  
   403.0     0.176    0.590    0.410    0.980    1.001    0.110    0.295    0.281    0.818    0.884   45.735   45.734   45.732   45.737   45.737   45.732   45.735   45.733   45.733   45.736  
   409.0     0.172    0.673    0.398    1.013    1.016    0.109    0.344    0.317    0.822    0.936   45.734   45.738   45.733   45.737   45.739   45.734   45.738   45.732   45.733   45.735  
   414.9     0.174    0.657    0.420    0.988    0.995    0.112    0.381    0.348    0.892    0.942   45.733   45.738   45.733   45.736   45.739   45.734   45.738   45.729   45.734   45.734  
   420.9     0.177    0.675    0.431    0.953    1.059    0.117    0.404    0.389    0.881    0.926   45.735   45.736   45.734   45.736   45.736   45.733   45.740   45.731   45.732   45.735  
   426.9     0.185    0.657    0.471    0.962    1.112    0.131    0.375    0.406    0.961    0.922   45.733   45.734   45.729   45.734   45.732   45.733   45.735   45.729   45.732   45.734  
   432.9     0.184    0.647    0.515    1.025    1.214    0.143    0.399    0.386    0.999    0.968   45.734   45.739   45.733   45.734   45.736   45.732   45.736   45.731   45.732   45.736  
   438.9     0.180    0.642    0.550    1.159    1.252    0.149    0.410    0.461    1.118    1.023   45.733   45.734   45.734   45.736   45.737   45.736   45.739   45.731   45.735   45.736  
   444.8     0.190    0.666    0.546    1.155    1.251    0.155    0.428    0.462    1.143    1.138   45.733   45.734   45.734   45.735   45.735   45.744   45.737   45.731   45.735   45.734  
   450.8     0.191    0.654    0.518    1.102    1.263    0.168    0.417    0.505    1.156    1.132   45.737   45.735   45.731   45.734   45.736   45.747   45.741   45.731   45.736   45.737  
   456.8     0.205    0.655    0.535    1.141    1.258    0.180    0.487    0.558    1.147    1.200   45.741   45.738   45.734   45.737   45.737   45.745   45.742   45.731   45.737   45.737  
   462.8     0.211    0.698    0.546    1.129    1.267    0.185    0.504    0.530    1.146    1.301   45.741   45.740   45.733   45.739   45.740   45.746   45.742   45.732   45.738   45.738  
   468.8     0.210    0.696    0.569    1.146    1.283    0.194    0.553    0.485    1.157    1.334   45.742   45.738   45.731   45.740   45.737   45.744   45.740   45.732   45.736   45.736  
   474.7     0.210    0.668    0.569    1.141    1.393    0.204    0.574    0.568    1.167    1.367   45.743   45.741   45.732   45.738   45.736   45.747   45.738   45.733   45.738   45.736  
   480.7     0.214    0.677    0.584    1.198    1.592    0.207    0.590    0.621    1.290    1.449   45.744   45.741   45.732   45.739   45.736   45.746   45.741   45.734   45.738   45.734  
   486.7     0.227    0.707    0.598    1.367    1.698    0.217    0.683    0.614    1.431    1.468   45.743   45.738   45.734   45.735   45.735   45.745   45.738   45.735   45.735   45.735  
   492.7     0.227    0.665    0.630    1.434    1.686    0.232    0.676    0.687    1.416    1.601   45.744   45.741   45.734   45.734   45.737   45.744   45.740   45.734   45.736   45.738  
